Data from Absorbance_010.txt Node
Date: Fri Nov 13 12:16:42 MSK 2020
User: vat
Spectrometer: MAYP114033
Trigger mode: 0
Integration Time (sec): 8,000000E-3
Scans to average: 10
Electric dark correction enabled: true
Nonlinearity correction enabled: false
Boxcar width: 3
XAxis mode: Wavelengths
Number of Pixels in Spectrum: 2068
>>>>>Begin Spectral Data<<<<<
199,4	-0,879
199,9	-0,14
200,4	-0,016
200,8	0,024
201,3	0,003
201,8	0,069
202,2	0,064
202,7	0,061
203,2	0,056
203,6	0,068
204,1	0,072
204,6	0,079
205	0,061
205,5	0,068
206	0,076
206,4	0,077
206,9	0,062
207,4	0,055
207,8	0,069
208,3	0,079
208,8	0,094
209,2	0,097
209,7	0,1
210,2	0,104
210,6	0,101
211,1	0,097
211,5	0,087
212	0,073
212,5	0,063
212,9	0,063
213,4	0,071
213,9	0,072
214,3	0,08
214,8	0,086
215,3	0,082
215,7	0,08
216,2	0,069
216,7	0,062
217,1	0,058
217,6	0,046
218,1	0,068
218,5	0,072
219	0,085
219,5	0,113
219,9	0,106
220,4	0,101
220,9	0,094
221,3	0,071
221,8	0,072
222,3	0,083
222,7	0,078
223,2	0,091
223,6	0,104
224,1	0,102
224,6	0,103
225	0,104
225,5	0,088
226	0,089
226,4	0,086
226,9	0,085
227,4	0,094
227,8	0,1
228,3	0,09
228,8	0,085
229,2	0,08
229,7	0,081
230,2	0,094
230,6	0,105
231,1	0,107
231,5	0,133
232	0,142
232,5	0,143
232,9	0,141
233,4	0,12
233,9	0,119
234,3	0,134
234,8	0,12
235,3	0,116
235,7	0,107
236,2	0,111
236,7	0,125
237,1	0,132
237,6	0,116
238,1	0,116
238,5	0,125
239	0,134
239,4	0,151
239,9	0,155
240,4	0,152
240,8	0,176
241,3	0,177
241,8	0,174
242,2	0,187
242,7	0,186
243,2	0,194
243,6	0,21
244,1	0,196
244,6	0,203
245	0,214
245,5	0,222
245,9	0,229
246,4	0,229
246,9	0,236
247,3	0,256
247,8	0,268
248,3	0,277
248,7	0,285
249,2	0,29
249,7	0,309
250,1	0,316
250,6	0,326
251	0,327
251,5	0,329
252	0,33
252,4	0,34
252,9	0,347
253,4	0,356
253,8	0,359
254,3	0,367
254,8	0,38
255,2	0,391
255,7	0,4
256,1	0,41
256,6	0,42
257,1	0,433
257,5	0,447
258	0,459
258,5	0,472
258,9	0,485
259,4	0,5
259,9	0,515
260,3	0,531
260,8	0,547
261,2	0,564
261,7	0,582
262,2	0,599
262,6	0,617
263,1	0,635
263,6	0,654
264	0,673
264,5	0,692
264,9	0,71
265,4	0,731
265,9	0,749
266,3	0,77
266,8	0,787
267,3	0,807
267,7	0,826
268,2	0,846
268,7	0,864
269,1	0,882
269,6	0,901
270	0,92
270,5	0,939
271	0,959
271,4	0,978
271,9	0,997
272,4	1,017
272,8	1,034
273,3	1,052
273,7	1,069
274,2	1,086
274,7	1,102
275,1	1,118
275,6	1,135
276,1	1,149
276,5	1,163
277	1,176
277,4	1,189
277,9	1,198
278,4	1,208
278,8	1,217
279,3	1,227
279,8	1,234
280,2	1,241
280,7	1,246
281,1	1,254
281,6	1,258
282,1	1,26
282,5	1,261
283	1,262
283,4	1,261
283,9	1,26
284,4	1,256
284,8	1,254
285,3	1,249
285,8	1,242
286,2	1,235
286,7	1,228
287,1	1,218
287,6	1,207
288,1	1,195
288,5	1,183
289	1,168
289,5	1,154
289,9	1,136
290,4	1,119
290,8	1,1
291,3	1,08
291,8	1,061
292,2	1,04
292,7	1,018
293,1	0,996
293,6	0,973
294,1	0,95
294,5	0,926
295	0,9
295,5	0,876
295,9	0,851
296,4	0,826
296,8	0,8
297,3	0,773
297,8	0,748
298,2	0,722
298,7	0,697
299,1	0,671
299,6	0,645
300,1	0,62
300,5	0,595
301	0,57
301,5	0,546
301,9	0,522
302,4	0,499
302,8	0,477
303,3	0,456
303,8	0,435
304,2	0,415
304,7	0,395
305,1	0,376
305,6	0,358
306,1	0,341
306,5	0,324
307	0,307
307,4	0,292
307,9	0,278
308,4	0,263
308,8	0,25
309,3	0,238
309,8	0,226
310,2	0,215
310,7	0,204
311,1	0,193
311,6	0,184
312,1	0,175
312,5	0,166
313	0,158
313,4	0,151
313,9	0,144
314,4	0,137
314,8	0,131
315,3	0,125
315,7	0,12
316,2	0,115
316,7	0,11
317,1	0,106
317,6	0,102
318	0,098
318,5	0,095
319	0,092
319,4	0,089
319,9	0,086
320,3	0,083
320,8	0,08
321,3	0,078
321,7	0,076
322,2	0,074
322,6	0,072
323,1	0,07
323,6	0,069
324	0,068
324,5	0,066
324,9	0,064
325,4	0,063
325,9	0,063
326,3	0,061
326,8	0,06
327,2	0,059
327,7	0,058
328,2	0,058
328,6	0,057
329,1	0,056
329,5	0,056
330	0,056
330,5	0,055
330,9	0,055
331,4	0,054
331,8	0,054
332,3	0,053
332,8	0,053
333,2	0,053
333,7	0,053
334,1	0,053
334,6	0,053
335,1	0,053
335,5	0,053
336	0,052
336,4	0,052
336,9	0,051
337,4	0,05
337,8	0,05
338,3	0,05
338,7	0,05
339,2	0,05
339,7	0,05
340,1	0,05
340,6	0,05
341	0,05
341,5	0,05
342	0,049
342,4	0,049
342,9	0,049
343,3	0,049
343,8	0,049
344,2	0,048
344,7	0,048
345,2	0,048
345,6	0,048
346,1	0,048
346,5	0,049
347	0,049
347,5	0,049
347,9	0,049
348,4	0,048
348,8	0,048
349,3	0,048
349,8	0,048
350,2	0,048
350,7	0,047
351,1	0,048
351,6	0,047
352	0,047
352,5	0,047
353	0,047
353,4	0,047
353,9	0,047
354,3	0,048
354,8	0,048
355,3	0,048
355,7	0,048
356,2	0,048
356,6	0,048
357,1	0,047
357,5	0,047
358	0,047
358,5	0,047
358,9	0,047
359,4	0,047
359,8	0,047
360,3	0,046
360,8	0,046
361,2	0,045
361,7	0,045
362,1	0,045
362,6	0,045
363	0,045
363,5	0,045
364	0,045
364,4	0,045
364,9	0,046
365,3	0,046
365,8	0,046
366,3	0,045
366,7	0,046
367,2	0,046
367,6	0,046
368,1	0,045
368,5	0,045
369	0,045
369,5	0,045
369,9	0,045
370,4	0,045
370,8	0,045
371,3	0,046
371,7	0,046
372,2	0,046
372,7	0,046
373,1	0,046
373,6	0,046
374	0,046
374,5	0,045
374,9	0,045
375,4	0,045
375,9	0,045
376,3	0,044
376,8	0,044
377,2	0,044
377,7	0,044
378,2	0,044
378,6	0,044
379,1	0,044
379,5	0,044
380	0,044
380,4	0,044
380,9	0,044
381,4	0,044
381,8	0,043
382,3	0,043
382,7	0,043
383,2	0,043
383,6	0,044
384,1	0,044
384,6	0,043
385	0,044
385,5	0,043
385,9	0,044
386,4	0,043
386,8	0,043
387,3	0,043
387,7	0,043
388,2	0,043
388,7	0,043
389,1	0,042
389,6	0,043
390	0,044
390,5	0,044
390,9	0,043
391,4	0,043
391,9	0,043
392,3	0,044
392,8	0,044
393,2	0,043
393,7	0,043
394,1	0,044
394,6	0,043
395,1	0,043
395,5	0,043
396	0,043
396,4	0,042
396,9	0,042
397,3	0,042
397,8	0,042
398,2	0,042
398,7	0,043
399,2	0,043
399,6	0,043
400,1	0,043
400,5	0,043
401	0,043
401,4	0,043
401,9	0,043
402,4	0,043
402,8	0,043
403,3	0,043
403,7	0,043
404,2	0,043
404,6	0,042
405,1	0,042
405,5	0,042
406	0,042
406,5	0,042
406,9	0,042
407,4	0,042
407,8	0,042
408,3	0,041
408,7	0,041
409,2	0,041
409,6	0,042
410,1	0,042
410,6	0,042
411	0,042
411,5	0,042
411,9	0,042
412,4	0,042
412,8	0,043
413,3	0,043
413,7	0,043
414,2	0,042
414,7	0,043
415,1	0,042
415,6	0,042
416	0,042
416,5	0,042
416,9	0,042
417,4	0,043
417,8	0,043
418,3	0,043
418,8	0,043
419,2	0,042
419,7	0,042
420,1	0,042
420,6	0,042
421	0,041
421,5	0,041
421,9	0,041
422,4	0,042
422,8	0,042
423,3	0,042
423,8	0,042
424,2	0,042
424,7	0,042
425,1	0,043
425,6	0,043
426	0,042
426,5	0,042
426,9	0,042
427,4	0,043
427,9	0,042
428,3	0,042
428,8	0,043
429,2	0,043
429,7	0,043
430,1	0,042
430,6	0,042
431	0,042
431,5	0,041
431,9	0,041
432,4	0,042
432,8	0,042
433,3	0,042
433,8	0,042
434,2	0,042
434,7	0,042
435,1	0,043
435,6	0,043
436	0,043
436,5	0,043
436,9	0,043
437,4	0,043
437,8	0,042
438,3	0,042
438,8	0,042
439,2	0,041
439,7	0,041
440,1	0,041
440,6	0,041
441	0,041
441,5	0,041
441,9	0,041
442,4	0,041
442,8	0,042
443,3	0,042
443,7	0,043
444,2	0,043
444,7	0,042
445,1	0,042
445,6	0,043
446	0,043
446,5	0,043
446,9	0,042
447,4	0,042
447,8	0,043
448,3	0,043
448,7	0,042
449,2	0,042
449,6	0,042
450,1	0,041
450,6	0,04
451	0,04
451,5	0,04
451,9	0,041
452,4	0,041
452,8	0,041
453,3	0,041
453,7	0,042
454,2	0,042
454,6	0,041
455,1	0,041
455,5	0,041
456	0,041
456,4	0,041
456,9	0,041
457,3	0,041
457,8	0,041
458,3	0,041
458,7	0,041
459,2	0,041
459,6	0,041
460,1	0,041
460,5	0,042
461	0,042
461,4	0,042
461,9	0,041
462,3	0,041
462,8	0,042
463,2	0,042
463,7	0,041
464,1	0,041
464,6	0,041
465	0,041
465,5	0,041
466	0,041
466,4	0,041
466,9	0,041
467,3	0,041
467,8	0,041
468,2	0,041
468,7	0,041
469,1	0,041
469,6	0,041
470	0,041
470,5	0,041
470,9	0,041
471,4	0,042
471,8	0,042
472,3	0,042
472,7	0,042
473,2	0,043
473,6	0,043
474,1	0,043
474,5	0,042
475	0,042
475,4	0,041
475,9	0,041
476,4	0,041
476,8	0,041
477,3	0,041
477,7	0,042
478,2	0,042
478,6	0,042
479,1	0,042
479,5	0,042
480	0,042
480,4	0,042
480,9	0,042
481,3	0,042
481,8	0,042
482,2	0,042
482,7	0,041
483,1	0,041
483,6	0,04
484	0,04
484,5	0,04
484,9	0,04
485,4	0,041
485,8	0,041
486,3	0,041
486,7	0,041
487,2	0,042
487,6	0,042
488,1	0,042
488,5	0,042
489	0,041
489,4	0,041
489,9	0,041
490,4	0,041
490,8	0,04
491,3	0,04
491,7	0,04
492,2	0,04
492,6	0,04
493,1	0,04
493,5	0,04
494	0,041
494,4	0,041
494,9	0,04
495,3	0,041
495,8	0,041
496,2	0,041
496,7	0,041
497,1	0,041
497,6	0,041
498	0,041
498,5	0,041
498,9	0,041
499,4	0,041
499,8	0,041
500,3	0,042
500,7	0,041
501,2	0,042
501,6	0,042
502,1	0,041
502,5	0,042
503	0,041
503,4	0,041
503,9	0,041
504,3	0,04
504,8	0,04
505,2	0,04
505,7	0,039
506,1	0,04
506,6	0,04
507	0,041
507,5	0,04
507,9	0,04
508,4	0,041
508,8	0,04
509,3	0,04
509,7	0,041
510,2	0,04
510,6	0,041
511,1	0,041
511,5	0,04
512	0,041
512,4	0,041
512,9	0,04
513,3	0,04
513,8	0,04
514,2	0,04
514,7	0,04
515,1	0,039
515,6	0,039
516	0,039
516,5	0,039
516,9	0,039
517,4	0,039
517,8	0,039
518,3	0,039
518,7	0,04
519,2	0,039
519,6	0,04
520,1	0,039
520,5	0,039
521	0,039
521,4	0,039
521,9	0,038
522,3	0,038
522,8	0,038
523,2	0,039
523,7	0,039
524,1	0,039
524,6	0,039
525	0,039
525,5	0,038
525,9	0,038
526,4	0,038
526,8	0,038
527,3	0,039
527,7	0,039
528,2	0,039
528,6	0,039
529,1	0,039
529,5	0,039
530	0,039
530,4	0,038
530,9	0,038
531,3	0,038
531,8	0,038
532,2	0,038
532,6	0,038
533,1	0,038
533,5	0,039
534	0,039
534,4	0,039
534,9	0,039
535,3	0,039
535,8	0,039
536,2	0,039
536,7	0,038
537,1	0,038
537,6	0,038
538	0,038
538,5	0,038
538,9	0,039
539,4	0,039
539,8	0,039
540,3	0,039
540,7	0,039
541,2	0,039
541,6	0,039
542,1	0,039
542,5	0,039
543	0,039
543,4	0,039
543,9	0,039
544,3	0,039
544,8	0,039
545,2	0,04
545,7	0,039
546,1	0,039
546,5	0,039
547	0,039
547,4	0,039
547,9	0,039
548,3	0,038
548,8	0,039
549,2	0,038
549,7	0,038
550,1	0,038
550,6	0,038
551	0,038
551,5	0,038
551,9	0,038
552,4	0,038
552,8	0,039
553,3	0,039
553,7	0,039
554,2	0,039
554,6	0,039
555,1	0,039
555,5	0,04
555,9	0,04
556,4	0,04
556,8	0,04
557,3	0,04
557,7	0,04
558,2	0,039
558,6	0,038
559,1	0,038
559,5	0,038
560	0,038
560,4	0,038
560,9	0,038
561,3	0,039
561,8	0,039
562,2	0,039
562,7	0,039
563,1	0,039
563,6	0,038
564	0,038
564,4	0,038
564,9	0,038
565,3	0,038
565,8	0,038
566,2	0,038
566,7	0,039
567,1	0,039
567,6	0,039
568	0,039
568,5	0,039
568,9	0,039
569,4	0,039
569,8	0,04
570,3	0,04
570,7	0,04
571,1	0,04
571,6	0,04
572	0,04
572,5	0,04
572,9	0,04
573,4	0,04
573,8	0,04
574,3	0,04
574,7	0,039
575,2	0,039
575,6	0,04
576,1	0,04
576,5	0,04
576,9	0,04
577,4	0,04
577,8	0,04
578,3	0,04
578,7	0,04
579,2	0,04
579,6	0,041
580,1	0,041
580,5	0,041
581	0,041
581,4	0,042
581,9	0,042
582,3	0,041
582,7	0,041
583,2	0,041
583,6	0,041
584,1	0,041
584,5	0,041
585	0,04
585,4	0,04
585,9	0,04
586,3	0,04
586,8	0,04
587,2	0,04
587,6	0,04
588,1	0,04
588,5	0,04
589	0,04
589,4	0,04
589,9	0,04
590,3	0,04
590,8	0,04
591,2	0,04
591,7	0,04
592,1	0,039
592,5	0,04
593	0,04
593,4	0,04
593,9	0,04
594,3	0,04
594,8	0,04
595,2	0,04
595,7	0,04
596,1	0,04
596,6	0,04
597	0,04
597,4	0,04
597,9	0,04
598,3	0,04
598,8	0,04
599,2	0,041
599,7	0,041
600,1	0,041
600,6	0,041
601	0,041
601,4	0,041
601,9	0,041
602,3	0,041
602,8	0,04
603,2	0,04
603,7	0,04
604,1	0,04
604,6	0,04
605	0,04
605,4	0,04
605,9	0,04
606,3	0,04
606,8	0,04
607,2	0,04
607,7	0,04
608,1	0,04
608,6	0,04
609	0,04
609,4	0,04
609,9	0,039
610,3	0,039
610,8	0,039
611,2	0,039
611,7	0,039
612,1	0,039
612,6	0,039
613	0,039
613,4	0,038
613,9	0,039
614,3	0,039
614,8	0,039
615,2	0,039
615,7	0,039
616,1	0,039
616,6	0,039
617	0,039
617,4	0,039
617,9	0,039
618,3	0,039
618,8	0,039
619,2	0,039
619,7	0,039
620,1	0,039
620,5	0,039
621	0,039
621,4	0,038
621,9	0,038
622,3	0,038
622,8	0,038
623,2	0,038
623,6	0,038
624,1	0,038
624,5	0,038
625	0,038
625,4	0,038
625,9	0,038
626,3	0,039
626,8	0,039
627,2	0,039
627,6	0,039
628,1	0,039
628,5	0,039
629	0,039
629,4	0,039
629,9	0,039
630,3	0,039
630,7	0,038
631,2	0,038
631,6	0,038
632,1	0,038
632,5	0,038
633	0,038
633,4	0,038
633,8	0,038
634,3	0,038
634,7	0,038
635,2	0,038
635,6	0,038
636,1	0,038
636,5	0,038
636,9	0,038
637,4	0,038
637,8	0,038
638,3	0,038
638,7	0,038
639,2	0,039
639,6	0,039
640	0,038
640,5	0,038
640,9	0,038
641,4	0,038
641,8	0,037
642,2	0,037
642,7	0,036
643,1	0,037
643,6	0,037
644	0,037
644,5	0,037
644,9	0,038
645,3	0,038
645,8	0,038
646,2	0,037
646,7	0,037
647,1	0,037
647,6	0,037
648	0,037
648,4	0,037
648,9	0,037
649,3	0,037
649,8	0,037
650,2	0,037
650,6	0,037
651,1	0,037
651,5	0,037
652	0,037
652,4	0,037
652,9	0,038
653,3	0,038
653,7	0,038
654,2	0,025
654,6	0,018
655,1	0,013
655,5	0,017
655,9	0,018
656,4	0,018
656,8	0,015
657,3	0,021
657,7	0,029
658,2	0,045
658,6	0,042
659	0,04
659,5	0,039
659,9	0,038
660,4	0,038
660,8	0,038
661,2	0,037
661,7	0,037
662,1	0,038
662,6	0,038
663	0,038
663,4	0,038
663,9	0,038
664,3	0,037
664,8	0,037
665,2	0,037
665,6	0,038
666,1	0,038
666,5	0,038
667	0,038
667,4	0,038
667,9	0,038
668,3	0,038
668,7	0,038
669,2	0,038
669,6	0,037
670,1	0,038
670,5	0,038
670,9	0,038
671,4	0,039
671,8	0,039
672,3	0,039
672,7	0,039
673,1	0,039
673,6	0,039
674	0,039
674,5	0,039
674,9	0,039
675,3	0,039
675,8	0,039
676,2	0,039
676,7	0,039
677,1	0,038
677,5	0,038
678	0,038
678,4	0,038
678,9	0,038
679,3	0,038
679,7	0,038
680,2	0,039
680,6	0,039
681,1	0,039
681,5	0,039
681,9	0,039
682,4	0,039
682,8	0,038
683,3	0,038
683,7	0,038
684,1	0,038
684,6	0,038
685	0,039
685,5	0,039
685,9	0,039
686,3	0,039
686,8	0,039
687,2	0,039
687,7	0,039
688,1	0,039
688,5	0,039
689	0,039
689,4	0,039
689,9	0,039
690,3	0,039
690,7	0,039
691,2	0,039
691,6	0,039
692	0,039
692,5	0,039
692,9	0,039
693,4	0,039
693,8	0,039
694,2	0,039
694,7	0,039
695,1	0,039
695,6	0,039
696	0,039
696,4	0,04
696,9	0,04
697,3	0,04
697,8	0,04
698,2	0,04
698,6	0,04
699,1	0,039
699,5	0,04
699,9	0,04
700,4	0,04
700,8	0,039
701,3	0,039
701,7	0,039
702,1	0,039
702,6	0,039
703	0,039
703,5	0,039
703,9	0,039
704,3	0,04
704,8	0,039
705,2	0,039
705,6	0,039
706,1	0,039
706,5	0,039
707	0,039
707,4	0,039
707,8	0,039
708,3	0,039
708,7	0,039
709,2	0,039
709,6	0,039
710	0,039
710,5	0,039
710,9	0,039
711,3	0,039
711,8	0,039
712,2	0,039
712,7	0,039
713,1	0,039
713,5	0,039
714	0,039
714,4	0,039
714,8	0,039
715,3	0,039
715,7	0,039
716,2	0,039
716,6	0,039
717	0,039
717,5	0,039
717,9	0,039
718,3	0,039
718,8	0,039
719,2	0,039
719,7	0,039
720,1	0,04
720,5	0,04
721	0,04
721,4	0,04
721,8	0,04
722,3	0,039
722,7	0,039
723,2	0,039
723,6	0,039
724	0,039
724,5	0,04
724,9	0,04
725,3	0,041
725,8	0,041
726,2	0,041
726,7	0,041
727,1	0,041
727,5	0,041
728	0,04
728,4	0,04
728,8	0,04
729,3	0,04
729,7	0,04
730,1	0,04
730,6	0,04
731	0,04
731,5	0,04
731,9	0,04
732,3	0,04
732,8	0,041
733,2	0,041
733,6	0,041
734,1	0,041
734,5	0,041
734,9	0,041
735,4	0,041
735,8	0,041
736,3	0,041
736,7	0,042
737,1	0,042
737,6	0,042
738	0,042
738,4	0,042
738,9	0,042
739,3	0,042
739,7	0,042
740,2	0,042
740,6	0,042
741,1	0,041
741,5	0,042
741,9	0,041
742,4	0,041
742,8	0,041
743,2	0,04
743,7	0,04
744,1	0,04
744,5	0,04
745	0,04
745,4	0,04
745,8	0,04
746,3	0,041
746,7	0,041
747,2	0,041
747,6	0,041
748	0,041
748,5	0,041
748,9	0,041
749,3	0,041
749,8	0,041
750,2	0,041
750,6	0,041
751,1	0,041
751,5	0,041
751,9	0,041
752,4	0,041
752,8	0,04
753,3	0,04
753,7	0,04
754,1	0,04
754,6	0,04
755	0,04
755,4	0,041
755,9	0,041
756,3	0,041
756,7	0,041
757,2	0,041
757,6	0,041
758	0,041
758,5	0,042
758,9	0,041
759,3	0,041
759,8	0,042
760,2	0,042
760,6	0,042
761,1	0,041
761,5	0,041
761,9	0,041
762,4	0,041
762,8	0,041
763,3	0,041
763,7	0,041
764,1	0,041
764,6	0,041
765	0,042
765,4	0,042
765,9	0,042
766,3	0,042
766,7	0,042
767,2	0,042
767,6	0,043
768	0,043
768,5	0,043
768,9	0,043
769,3	0,043
769,8	0,043
770,2	0,043
770,6	0,043
771,1	0,043
771,5	0,043
771,9	0,043
772,4	0,042
772,8	0,042
773,2	0,042
773,7	0,042
774,1	0,042
774,5	0,041
775	0,041
775,4	0,041
775,8	0,042
776,3	0,041
776,7	0,041
777,1	0,041
777,6	0,041
778	0,042
778,4	0,042
778,9	0,042
779,3	0,042
779,7	0,042
780,2	0,042
780,6	0,042
781	0,042
781,5	0,042
781,9	0,042
782,3	0,042
782,8	0,042
783,2	0,042
783,6	0,042
784,1	0,042
784,5	0,041
784,9	0,041
785,4	0,041
785,8	0,041
786,2	0,041
786,7	0,041
787,1	0,041
787,5	0,042
788	0,042
788,4	0,042
788,8	0,043
789,3	0,043
789,7	0,043
790,1	0,043
790,6	0,042
791	0,042
791,4	0,042
791,9	0,042
792,3	0,042
792,7	0,042
793,2	0,042
793,6	0,043
794	0,043
794,5	0,043
794,9	0,043
795,3	0,043
795,8	0,043
796,2	0,043
796,6	0,042
797,1	0,042
797,5	0,042
797,9	0,042
798,4	0,042
798,8	0,042
799,2	0,042
799,7	0,042
800,1	0,042
800,5	0,042
801	0,042
801,4	0,042
801,8	0,042
802,2	0,042
802,7	0,042
803,1	0,043
803,5	0,043
804	0,043
804,4	0,043
804,8	0,043
805,3	0,043
805,7	0,043
806,1	0,043
806,6	0,043
807	0,043
807,4	0,043
807,9	0,043
808,3	0,042
808,7	0,042
809,2	0,042
809,6	0,042
810	0,042
810,4	0,042
810,9	0,042
811,3	0,042
811,7	0,042
812,2	0,043
812,6	0,043
813	0,043
813,5	0,043
813,9	0,043
814,3	0,043
814,8	0,043
815,2	0,043
815,6	0,042
816,1	0,042
816,5	0,042
816,9	0,042
817,3	0,042
817,8	0,042
818,2	0,041
818,6	0,041
819,1	0,041
819,5	0,041
819,9	0,041
820,4	0,041
820,8	0,042
821,2	0,042
821,7	0,042
822,1	0,042
822,5	0,043
822,9	0,042
823,4	0,042
823,8	0,043
824,2	0,043
824,7	0,043
825,1	0,042
825,5	0,042
826	0,042
826,4	0,042
826,8	0,042
827,3	0,042
827,7	0,042
828,1	0,042
828,5	0,043
829	0,043
829,4	0,042
829,8	0,042
830,3	0,043
830,7	0,043
831,1	0,043
831,6	0,043
832	0,043
832,4	0,043
832,8	0,044
833,3	0,043
833,7	0,043
834,1	0,043
834,6	0,043
835	0,043
835,4	0,043
835,8	0,043
836,3	0,043
836,7	0,043
837,1	0,043
837,6	0,043
838	0,043
838,4	0,043
838,9	0,043
839,3	0,043
839,7	0,043
840,1	0,043
840,6	0,042
841	0,042
841,4	0,041
841,9	0,041
842,3	0,041
842,7	0,041
843,1	0,041
843,6	0,041
844	0,042
844,4	0,042
844,9	0,042
845,3	0,042
845,7	0,043
846,2	0,043
846,6	0,043
847	0,043
847,4	0,043
847,9	0,043
848,3	0,043
848,7	0,043
849,2	0,043
849,6	0,042
850	0,042
850,4	0,042
850,9	0,042
851,3	0,042
851,7	0,043
852,2	0,043
852,6	0,043
853	0,043
853,4	0,044
853,9	0,044
854,3	0,044
854,7	0,044
855,2	0,043
855,6	0,043
856	0,043
856,4	0,043
856,9	0,043
857,3	0,043
857,7	0,043
858,2	0,043
858,6	0,043
859	0,043
859,4	0,043
859,9	0,043
860,3	0,042
860,7	0,043
861,1	0,042
861,6	0,043
862	0,043
862,4	0,043
862,9	0,043
863,3	0,043
863,7	0,043
864,1	0,043
864,6	0,043
865	0,043
865,4	0,043
865,9	0,043
866,3	0,043
866,7	0,043
867,1	0,043
867,6	0,043
868	0,044
868,4	0,044
868,8	0,044
869,3	0,044
869,7	0,044
870,1	0,044
870,6	0,044
871	0,044
871,4	0,044
871,8	0,044
872,3	0,044
872,7	0,043
873,1	0,043
873,5	0,043
874	0,043
874,4	0,043
874,8	0,043
875,3	0,043
875,7	0,043
876,1	0,043
876,5	0,043
877	0,043
877,4	0,044
877,8	0,044
878,2	0,044
878,7	0,044
879,1	0,044
879,5	0,044
879,9	0,044
880,4	0,044
880,8	0,044
881,2	0,044
881,7	0,044
882,1	0,044
882,5	0,044
882,9	0,044
883,4	0,044
883,8	0,043
884,2	0,044
884,6	0,044
885,1	0,044
885,5	0,044
885,9	0,044
886,3	0,044
886,8	0,044
887,2	0,044
887,6	0,043
888	0,043
888,5	0,044
888,9	0,044
889,3	0,044
889,8	0,043
890,2	0,044
890,6	0,044
891	0,044
891,5	0,043
891,9	0,044
892,3	0,044
892,7	0,044
893,2	0,044
893,6	0,044
894	0,044
894,4	0,044
894,9	0,044
895,3	0,044
895,7	0,044
896,1	0,044
896,6	0,044
897	0,044
897,4	0,044
897,8	0,044
898,3	0,044
898,7	0,044
899,1	0,044
899,5	0,044
900	0,044
900,4	0,045
900,8	0,045
901,2	0,044
901,7	0,044
902,1	0,044
902,5	0,044
902,9	0,044
903,4	0,044
903,8	0,044
904,2	0,045
904,6	0,045
905,1	0,045
905,5	0,044
905,9	0,044
906,3	0,043
906,8	0,043
907,2	0,043
907,6	0,042
908	0,043
908,5	0,043
908,9	0,043
909,3	0,043
909,7	0,044
910,2	0,044
910,6	0,044
911	0,044
911,4	0,044
911,9	0,045
912,3	0,044
912,7	0,045
913,1	0,044
913,6	0,044
914	0,044
914,4	0,044
914,8	0,044
915,3	0,044
915,7	0,043
916,1	0,043
916,5	0,043
916,9	0,043
917,4	0,043
917,8	0,042
918,2	0,043
918,6	0,043
919,1	0,043
919,5	0,044
919,9	0,044
920,3	0,044
920,8	0,045
921,2	0,044
921,6	0,044
922	0,043
922,5	0,043
922,9	0,043
923,3	0,043
923,7	0,043
924,2	0,044
924,6	0,044
925	0,044
925,4	0,044
925,8	0,044
926,3	0,044
926,7	0,045
927,1	0,044
927,5	0,044
928	0,045
928,4	0,045
928,8	0,045
929,2	0,046
929,7	0,046
930,1	0,047
930,5	0,047
930,9	0,047
931,3	0,046
931,8	0,046
932,2	0,046
932,6	0,045
933	0,045
933,5	0,045
933,9	0,045
934,3	0,045
934,7	0,045
935,2	0,045
935,6	0,046
936	0,046
936,4	0,046
936,8	0,045
937,3	0,045
937,7	0,044
938,1	0,044
938,5	0,044
939	0,044
939,4	0,044
939,8	0,045
940,2	0,044
940,6	0,045
941,1	0,045
941,5	0,045
941,9	0,046
942,3	0,045
942,8	0,045
943,2	0,045
943,6	0,045
944	0,045
944,4	0,044
944,9	0,044
945,3	0,044
945,7	0,044
946,1	0,044
946,6	0,044
947	0,044
947,4	0,044
947,8	0,044
948,2	0,044
948,7	0,043
949,1	0,043
949,5	0,043
949,9	0,043
950,3	0,043
950,8	0,043
951,2	0,044
951,6	0,044
952	0,044
952,5	0,044
952,9	0,045
953,3	0,045
953,7	0,045
954,1	0,046
954,6	0,046
955	0,046
955,4	0,046
955,8	0,045
956,2	0,045
956,7	0,045
957,1	0,045
957,5	0,045
957,9	0,044
958,3	0,044
958,8	0,045
959,2	0,045
959,6	0,045
960	0,046
960,5	0,046
960,9	0,046
961,3	0,046
961,7	0,046
962,1	0,046
962,6	0,046
963	0,045
963,4	0,045
963,8	0,045
964,2	0,045
964,7	0,045
965,1	0,045
965,5	0,046
965,9	0,046
966,3	0,046
966,8	0,046
967,2	0,046
967,6	0,045
968	0,045
968,4	0,044
968,9	0,044
969,3	0,044
969,7	0,044
970,1	0,045
970,5	0,045
971	0,046
971,4	0,045
971,8	0,045
972,2	0,045
972,6	0,046
973,1	0,046
973,5	0,046
973,9	0,046
974,3	0,045
974,7	0,045
975,2	0,045
975,6	0,045
976	0,045
976,4	0,045
976,8	0,045
977,3	0,045
977,7	0,045
978,1	0,045
978,5	0,046
978,9	0,046
979,4	0,045
979,8	0,046
980,2	0,046
980,6	0,046
981	0,046
981,5	0,045
981,9	0,046
982,3	0,046
982,7	0,046
983,1	0,046
983,6	0,046
984	0,047
984,4	0,047
984,8	0,046
985,2	0,046
985,6	0,046
986,1	0,046
986,5	0,046
986,9	0,045
987,3	0,045
987,7	0,045
988,2	0,044
988,6	0,045
989	0,045
989,4	0,044
989,8	0,045
990,3	0,045
990,7	0,045
991,1	0,045
991,5	0,045
991,9	0,045
992,3	0,045
992,8	0,045
993,2	0,045
993,6	0,045
994	0,045
994,4	0,045
994,9	0,045
995,3	0,046
995,7	0,046
996,1	0,046
996,5	0,046
996,9	0,045
997,4	0,045
997,8	0,045
998,2	0,045
998,6	0,045
999	0,045
999,5	0,045
999,9	0,045
1000,3	0,045
1000,7	0,045
1001,1	0,045
1001,5	0,045
1002	0,046
1002,4	0,045
1002,8	0,045
1003,2	0,045
1003,6	0,045
1004	0,045
1004,5	0,045
1004,9	0,044
1005,3	0,045
1005,7	0,045
1006,1	0,045
1006,6	0,046
1007	0,046
1007,4	0,046
1007,8	0,046
1008,2	0,046
1008,6	0,046
1009,1	0,047
1009,5	0,047
1009,9	0,047
1010,3	0,047
1010,7	0,047
1011,1	0,047
1011,6	0,047
1012	0,046
1012,4	0,046
1012,8	0,045
1013,2	0,045
1013,6	0,046
1014,1	0,046
1014,5	0,045
1014,9	0,045
1015,3	0,045
1015,7	0,046
1016,1	0,046
1016,6	0,046
1017	0,046
1017,4	0,047
1017,8	0,047
1018,2	0,048
1018,6	0,047
1019,1	0,048
1019,5	0,047
1019,9	0,046
1020,3	0,047
1020,7	0,047
1021,1	0,046
1021,6	0,047
1022	0,047
1022,4	0,048
1022,8	0,048
1023,2	0,048
1023,6	0,048
1024,1	0,048
1024,5	0,048
1024,9	0,047
1025,3	0,047
1025,7	0,047
1026,1	0,046
1026,6	0,046
1027	0,045
1027,4	0,045
1027,8	0,045
1028,2	0,045
1028,6	0,045
1029	0,045
1029,5	0,046
1029,9	0,046
1030,3	0,047
1030,7	0,047
1031,1	0,047
1031,5	0,046
1032	0,046
1032,4	0,046
1032,8	0,046
1033,2	0,045
1033,6	0,045
1034	0,045
1034,4	0,045
1034,9	0,045
1035,3	0,045
1035,7	0,045
1036,1	0,046
1036,5	0,045
1036,9	0,046
1037,4	0,045
1037,8	0,046
1038,2	0,045
1038,6	0,045
1039	0,045
1039,4	0,046
1039,8	0,046
1040,3	0,047
1040,7	0,047
1041,1	0,047
1041,5	0,048
1041,9	0,048
1042,3	0,047
1042,7	0,047
1043,2	0,047
1043,6	0,047
1044	0,047
1044,4	0,047
1044,8	0,047
1045,2	0,048
1045,6	0,048
1046,1	0,048
1046,5	0,048
1046,9	0,048
1047,3	0,048
1047,7	0,047
1048,1	0,047
1048,5	0,047
1049	0,047
1049,4	0,047
1049,8	0,047
1050,2	0,048
1050,6	0,048
1051	0,049
1051,4	0,048
1051,9	0,047
1052,3	0,047
1052,7	0,047
1053,1	0,047
1053,5	0,047
1053,9	0,048
1054,3	0,049
1054,8	0,049
1055,2	0,049
1055,6	0,048
1056	0,048
1056,4	0,048
1056,8	0,047
1057,2	0,047
1057,6	0,048
1058,1	0,048
1058,5	0,048
1058,9	0,048
1059,3	0,048
1059,7	0,048
1060,1	0,047
1060,5	0,047
1061	0,048
1061,4	0,048
1061,8	0,048
1062,2	0,048
1062,6	0,047
1063	0,048
1063,4	0,048
1063,8	0,047
1064,3	0,048
1064,7	0,048
1065,1	0,048
1065,5	0,048
1065,9	0,048
1066,3	0,048
1066,7	0,049
1067,1	0,048
1067,6	0,049
1068	0,049
1068,4	0,05
1068,8	0,049
1069,2	0,049
1069,6	0,049
1070	0,049
1070,4	0,048
1070,9	0,048
1071,3	0,048
1071,7	0,047
1072,1	0,046
1072,5	0,046
1072,9	0,046
1073,3	0,046
1073,7	0,046
1074,2	0,045
1074,6	0,046
1075	0,048
1075,4	0,049
1075,8	0,049
1076,2	0,047
1076,6	0,048
1077	0,05
1077,5	0,05
1077,9	0,049
1078,3	0,048
1078,7	0,047
1079,1	0,049
1079,5	0,048
1079,9	0,046
1080,3	0,044
1080,7	0,045
1081,2	0,045
1081,6	0,045
1082	0,043
1082,4	0,044
1082,8	0,044
1083,2	0,045
1083,6	0,044
1084	0,044
1084,5	0,046
1084,9	0,045
1085,3	0,045
1085,7	0,045
1086,1	0,045
1086,5	0,044
1086,9	0,045
1087,3	0,043
1087,7	0,044
1088,2	0,041
1088,6	0,042
1089	0,042
1089,4	0,039
1089,8	0,04
1090,2	0,041
1090,6	0,042
1091	0,044
1091,4	0,043
1091,9	0,043
1092,3	0,044
1092,7	0,044
1093,1	0,042
1093,5	0,041
1093,9	0,046
1094,3	0,047
1094,7	0,043
1095,1	0,048
1095,5	0,046
1096	0,046
1096,4	0,048
1096,8	0,045
1097,2	0,042
1097,6	0,044
1098	0,04
1098,4	0,04
1098,8	0,044
1099,2	0,03
1099,6	0,024
1100,1	0,022
1100,5	0,027
1100,9	0,029
1101,3	0,025
1101,7	0,028
1102,1	0,034
1102,5	0,034
1102,9	0,036
1103,3	0,03
1103,7	0,036
1104,2	0,031
1104,6	0,031
1105	0,034
1105,4	0,041
1105,8	0,043
1106,2	0,046
1106,6	0,039
1107	0,063
1107,4	0,05
1107,8	0,088
1108,3	-0,193
