Data from Absorbance_202.txt Node
Date: Fri Nov 13 21:01:49 MSK 2020
User: vat
Spectrometer: MAYP114033
Trigger mode: 0
Integration Time (sec): 8,000000E-3
Scans to average: 10
Electric dark correction enabled: true
Nonlinearity correction enabled: false
Boxcar width: 3
XAxis mode: Wavelengths
Number of Pixels in Spectrum: 2068
>>>>>Begin Spectral Data<<<<<
199,4	-0,248
199,9	0,569
200,4	0,29
200,8	0,232
201,3	0,21
201,8	0,17
202,2	0,157
202,7	0,157
203,2	0,129
203,6	0,108
204,1	0,113
204,6	0,094
205	0,071
205,5	0,079
206	0,079
206,4	0,092
206,9	0,107
207,4	0,092
207,8	0,108
208,3	0,121
208,8	0,136
209,2	0,133
209,7	0,138
210,2	0,143
210,6	0,152
211,1	0,143
211,5	0,145
212	0,133
212,5	0,141
212,9	0,132
213,4	0,129
213,9	0,133
214,3	0,135
214,8	0,136
215,3	0,136
215,7	0,136
216,2	0,139
216,7	0,139
217,1	0,145
217,6	0,153
218,1	0,161
218,5	0,174
219	0,191
219,5	0,193
219,9	0,198
220,4	0,193
220,9	0,191
221,3	0,18
221,8	0,174
222,3	0,142
222,7	0,143
223,2	0,142
223,6	0,158
224,1	0,155
224,6	0,153
225	0,147
225,5	0,164
226	0,165
226,4	0,151
226,9	0,118
227,4	0,127
227,8	0,143
228,3	0,144
228,8	0,132
229,2	0,13
229,7	0,137
230,2	0,149
230,6	0,159
231,1	0,167
231,5	0,164
232	0,179
232,5	0,183
232,9	0,181
233,4	0,19
233,9	0,179
234,3	0,17
234,8	0,174
235,3	0,165
235,7	0,166
236,2	0,178
236,7	0,177
237,1	0,169
237,6	0,167
238,1	0,18
238,5	0,191
239	0,187
239,4	0,18
239,9	0,196
240,4	0,203
240,8	0,206
241,3	0,199
241,8	0,194
242,2	0,224
242,7	0,237
243,2	0,23
243,6	0,243
244,1	0,247
244,6	0,259
245	0,275
245,5	0,268
245,9	0,271
246,4	0,281
246,9	0,287
247,3	0,311
247,8	0,322
248,3	0,32
248,7	0,338
249,2	0,352
249,7	0,346
250,1	0,347
250,6	0,341
251	0,343
251,5	0,348
252	0,346
252,4	0,346
252,9	0,354
253,4	0,363
253,8	0,37
254,3	0,377
254,8	0,383
255,2	0,39
255,7	0,399
256,1	0,407
256,6	0,413
257,1	0,422
257,5	0,431
258	0,442
258,5	0,453
258,9	0,464
259,4	0,477
259,9	0,489
260,3	0,501
260,8	0,514
261,2	0,527
261,7	0,54
262,2	0,554
262,6	0,568
263,1	0,583
263,6	0,599
264	0,615
264,5	0,63
264,9	0,646
265,4	0,661
265,9	0,677
266,3	0,694
266,8	0,708
267,3	0,722
267,7	0,737
268,2	0,753
268,7	0,768
269,1	0,783
269,6	0,797
270	0,814
270,5	0,83
271	0,846
271,4	0,861
271,9	0,877
272,4	0,891
272,8	0,906
273,3	0,92
273,7	0,933
274,2	0,946
274,7	0,958
275,1	0,97
275,6	0,982
276,1	0,992
276,5	1,002
277	1,013
277,4	1,022
277,9	1,03
278,4	1,038
278,8	1,046
279,3	1,052
279,8	1,059
280,2	1,064
280,7	1,069
281,1	1,074
281,6	1,077
282,1	1,078
282,5	1,079
283	1,079
283,4	1,077
283,9	1,074
284,4	1,071
284,8	1,067
285,3	1,062
285,8	1,056
286,2	1,05
286,7	1,042
287,1	1,034
287,6	1,024
288,1	1,013
288,5	1,002
289	0,989
289,5	0,976
289,9	0,961
290,4	0,946
290,8	0,93
291,3	0,913
291,8	0,895
292,2	0,876
292,7	0,857
293,1	0,839
293,6	0,82
294,1	0,8
294,5	0,78
295	0,76
295,5	0,739
295,9	0,718
296,4	0,697
296,8	0,676
297,3	0,654
297,8	0,632
298,2	0,61
298,7	0,589
299,1	0,568
299,6	0,547
300,1	0,527
300,5	0,506
301	0,487
301,5	0,467
301,9	0,447
302,4	0,429
302,8	0,41
303,3	0,392
303,8	0,375
304,2	0,358
304,7	0,342
305,1	0,327
305,6	0,313
306,1	0,299
306,5	0,285
307	0,272
307,4	0,26
307,9	0,248
308,4	0,237
308,8	0,227
309,3	0,216
309,8	0,206
310,2	0,196
310,7	0,188
311,1	0,18
311,6	0,172
312,1	0,164
312,5	0,158
313	0,151
313,4	0,145
313,9	0,139
314,4	0,134
314,8	0,129
315,3	0,124
315,7	0,12
316,2	0,116
316,7	0,112
317,1	0,108
317,6	0,105
318	0,102
318,5	0,098
319	0,095
319,4	0,092
319,9	0,09
320,3	0,088
320,8	0,086
321,3	0,084
321,7	0,083
322,2	0,081
322,6	0,08
323,1	0,078
323,6	0,078
324	0,077
324,5	0,076
324,9	0,075
325,4	0,074
325,9	0,073
326,3	0,073
326,8	0,071
327,2	0,07
327,7	0,069
328,2	0,069
328,6	0,068
329,1	0,068
329,5	0,067
330	0,066
330,5	0,066
330,9	0,066
331,4	0,065
331,8	0,065
332,3	0,065
332,8	0,065
333,2	0,064
333,7	0,064
334,1	0,064
334,6	0,063
335,1	0,063
335,5	0,062
336	0,062
336,4	0,062
336,9	0,062
337,4	0,061
337,8	0,061
338,3	0,061
338,7	0,061
339,2	0,061
339,7	0,061
340,1	0,061
340,6	0,06
341	0,06
341,5	0,06
342	0,06
342,4	0,06
342,9	0,059
343,3	0,059
343,8	0,06
344,2	0,06
344,7	0,06
345,2	0,06
345,6	0,06
346,1	0,06
346,5	0,06
347	0,06
347,5	0,06
347,9	0,06
348,4	0,06
348,8	0,059
349,3	0,059
349,8	0,059
350,2	0,059
350,7	0,059
351,1	0,059
351,6	0,059
352	0,059
352,5	0,059
353	0,059
353,4	0,059
353,9	0,059
354,3	0,059
354,8	0,058
355,3	0,058
355,7	0,058
356,2	0,057
356,6	0,058
357,1	0,057
357,5	0,057
358	0,057
358,5	0,057
358,9	0,057
359,4	0,057
359,8	0,057
360,3	0,057
360,8	0,057
361,2	0,057
361,7	0,057
362,1	0,057
362,6	0,056
363	0,056
363,5	0,056
364	0,056
364,4	0,056
364,9	0,056
365,3	0,056
365,8	0,056
366,3	0,056
366,7	0,056
367,2	0,056
367,6	0,056
368,1	0,056
368,5	0,056
369	0,056
369,5	0,056
369,9	0,056
370,4	0,055
370,8	0,055
371,3	0,055
371,7	0,055
372,2	0,055
372,7	0,055
373,1	0,055
373,6	0,055
374	0,055
374,5	0,055
374,9	0,055
375,4	0,054
375,9	0,054
376,3	0,053
376,8	0,053
377,2	0,053
377,7	0,052
378,2	0,052
378,6	0,053
379,1	0,053
379,5	0,053
380	0,053
380,4	0,053
380,9	0,052
381,4	0,052
381,8	0,052
382,3	0,052
382,7	0,052
383,2	0,052
383,6	0,052
384,1	0,052
384,6	0,052
385	0,053
385,5	0,052
385,9	0,052
386,4	0,052
386,8	0,052
387,3	0,052
387,7	0,051
388,2	0,051
388,7	0,051
389,1	0,051
389,6	0,051
390	0,051
390,5	0,051
390,9	0,051
391,4	0,051
391,9	0,05
392,3	0,05
392,8	0,051
393,2	0,051
393,7	0,05
394,1	0,051
394,6	0,05
395,1	0,05
395,5	0,05
396	0,05
396,4	0,05
396,9	0,05
397,3	0,05
397,8	0,05
398,2	0,051
398,7	0,051
399,2	0,051
399,6	0,051
400,1	0,051
400,5	0,05
401	0,05
401,4	0,05
401,9	0,05
402,4	0,051
402,8	0,051
403,3	0,051
403,7	0,051
404,2	0,051
404,6	0,051
405,1	0,05
405,5	0,05
406	0,05
406,5	0,05
406,9	0,05
407,4	0,05
407,8	0,05
408,3	0,05
408,7	0,05
409,2	0,05
409,6	0,05
410,1	0,05
410,6	0,05
411	0,05
411,5	0,05
411,9	0,05
412,4	0,05
412,8	0,05
413,3	0,05
413,7	0,05
414,2	0,049
414,7	0,049
415,1	0,049
415,6	0,049
416	0,05
416,5	0,05
416,9	0,05
417,4	0,05
417,8	0,05
418,3	0,05
418,8	0,05
419,2	0,05
419,7	0,05
420,1	0,05
420,6	0,05
421	0,05
421,5	0,049
421,9	0,049
422,4	0,049
422,8	0,049
423,3	0,049
423,8	0,049
424,2	0,049
424,7	0,049
425,1	0,05
425,6	0,049
426	0,049
426,5	0,049
426,9	0,049
427,4	0,049
427,9	0,049
428,3	0,049
428,8	0,049
429,2	0,049
429,7	0,049
430,1	0,049
430,6	0,049
431	0,049
431,5	0,049
431,9	0,049
432,4	0,049
432,8	0,049
433,3	0,049
433,8	0,048
434,2	0,048
434,7	0,048
435,1	0,048
435,6	0,048
436	0,048
436,5	0,048
436,9	0,049
437,4	0,05
437,8	0,05
438,3	0,05
438,8	0,049
439,2	0,049
439,7	0,049
440,1	0,048
440,6	0,048
441	0,048
441,5	0,048
441,9	0,049
442,4	0,049
442,8	0,049
443,3	0,048
443,7	0,049
444,2	0,049
444,7	0,049
445,1	0,049
445,6	0,049
446	0,049
446,5	0,049
446,9	0,049
447,4	0,049
447,8	0,049
448,3	0,049
448,7	0,049
449,2	0,049
449,6	0,049
450,1	0,048
450,6	0,048
451	0,048
451,5	0,049
451,9	0,049
452,4	0,049
452,8	0,049
453,3	0,049
453,7	0,049
454,2	0,049
454,6	0,049
455,1	0,049
455,5	0,049
456	0,049
456,4	0,049
456,9	0,049
457,3	0,049
457,8	0,048
458,3	0,049
458,7	0,048
459,2	0,048
459,6	0,048
460,1	0,048
460,5	0,048
461	0,049
461,4	0,049
461,9	0,049
462,3	0,049
462,8	0,049
463,2	0,049
463,7	0,049
464,1	0,049
464,6	0,048
465	0,049
465,5	0,048
466	0,048
466,4	0,048
466,9	0,048
467,3	0,048
467,8	0,048
468,2	0,048
468,7	0,049
469,1	0,049
469,6	0,049
470	0,048
470,5	0,048
470,9	0,048
471,4	0,048
471,8	0,048
472,3	0,048
472,7	0,048
473,2	0,049
473,6	0,048
474,1	0,049
474,5	0,049
475	0,049
475,4	0,049
475,9	0,049
476,4	0,049
476,8	0,049
477,3	0,048
477,7	0,049
478,2	0,048
478,6	0,048
479,1	0,048
479,5	0,048
480	0,048
480,4	0,048
480,9	0,048
481,3	0,048
481,8	0,048
482,2	0,048
482,7	0,049
483,1	0,049
483,6	0,049
484	0,049
484,5	0,049
484,9	0,049
485,4	0,048
485,8	0,048
486,3	0,048
486,7	0,048
487,2	0,048
487,6	0,048
488,1	0,048
488,5	0,049
489	0,048
489,4	0,048
489,9	0,048
490,4	0,048
490,8	0,048
491,3	0,048
491,7	0,048
492,2	0,047
492,6	0,047
493,1	0,048
493,5	0,047
494	0,047
494,4	0,047
494,9	0,047
495,3	0,048
495,8	0,048
496,2	0,048
496,7	0,049
497,1	0,049
497,6	0,049
498	0,049
498,5	0,049
498,9	0,048
499,4	0,048
499,8	0,048
500,3	0,048
500,7	0,048
501,2	0,048
501,6	0,048
502,1	0,048
502,5	0,049
503	0,049
503,4	0,049
503,9	0,05
504,3	0,049
504,8	0,049
505,2	0,048
505,7	0,047
506,1	0,047
506,6	0,047
507	0,046
507,5	0,047
507,9	0,047
508,4	0,047
508,8	0,048
509,3	0,048
509,7	0,048
510,2	0,048
510,6	0,048
511,1	0,048
511,5	0,048
512	0,048
512,4	0,048
512,9	0,048
513,3	0,048
513,8	0,048
514,2	0,047
514,7	0,047
515,1	0,047
515,6	0,047
516	0,047
516,5	0,047
516,9	0,047
517,4	0,048
517,8	0,048
518,3	0,048
518,7	0,048
519,2	0,047
519,6	0,048
520,1	0,048
520,5	0,047
521	0,047
521,4	0,047
521,9	0,047
522,3	0,047
522,8	0,047
523,2	0,047
523,7	0,047
524,1	0,047
524,6	0,047
525	0,047
525,5	0,048
525,9	0,047
526,4	0,047
526,8	0,047
527,3	0,047
527,7	0,047
528,2	0,047
528,6	0,048
529,1	0,048
529,5	0,048
530	0,049
530,4	0,049
530,9	0,048
531,3	0,048
531,8	0,048
532,2	0,047
532,6	0,047
533,1	0,047
533,5	0,046
534	0,047
534,4	0,047
534,9	0,047
535,3	0,047
535,8	0,047
536,2	0,047
536,7	0,048
537,1	0,047
537,6	0,047
538	0,047
538,5	0,047
538,9	0,047
539,4	0,047
539,8	0,047
540,3	0,047
540,7	0,047
541,2	0,047
541,6	0,047
542,1	0,046
542,5	0,046
543	0,046
543,4	0,046
543,9	0,046
544,3	0,046
544,8	0,046
545,2	0,046
545,7	0,047
546,1	0,047
546,5	0,048
547	0,047
547,4	0,047
547,9	0,047
548,3	0,047
548,8	0,046
549,2	0,046
549,7	0,046
550,1	0,046
550,6	0,046
551	0,047
551,5	0,047
551,9	0,047
552,4	0,047
552,8	0,047
553,3	0,047
553,7	0,047
554,2	0,047
554,6	0,046
555,1	0,046
555,5	0,046
555,9	0,046
556,4	0,046
556,8	0,046
557,3	0,046
557,7	0,045
558,2	0,046
558,6	0,046
559,1	0,046
559,5	0,046
560	0,046
560,4	0,046
560,9	0,046
561,3	0,046
561,8	0,046
562,2	0,046
562,7	0,046
563,1	0,046
563,6	0,046
564	0,046
564,4	0,046
564,9	0,046
565,3	0,046
565,8	0,046
566,2	0,046
566,7	0,046
567,1	0,047
567,6	0,047
568	0,047
568,5	0,047
568,9	0,048
569,4	0,048
569,8	0,048
570,3	0,047
570,7	0,047
571,1	0,047
571,6	0,047
572	0,047
572,5	0,047
572,9	0,047
573,4	0,047
573,8	0,047
574,3	0,047
574,7	0,047
575,2	0,047
575,6	0,047
576,1	0,048
576,5	0,048
576,9	0,048
577,4	0,048
577,8	0,048
578,3	0,048
578,7	0,049
579,2	0,049
579,6	0,049
580,1	0,049
580,5	0,048
581	0,049
581,4	0,048
581,9	0,048
582,3	0,047
582,7	0,047
583,2	0,047
583,6	0,047
584,1	0,047
584,5	0,047
585	0,047
585,4	0,048
585,9	0,047
586,3	0,047
586,8	0,048
587,2	0,048
587,6	0,048
588,1	0,048
588,5	0,048
589	0,048
589,4	0,048
589,9	0,048
590,3	0,047
590,8	0,047
591,2	0,048
591,7	0,048
592,1	0,048
592,5	0,048
593	0,048
593,4	0,048
593,9	0,048
594,3	0,048
594,8	0,047
595,2	0,047
595,7	0,047
596,1	0,047
596,6	0,047
597	0,047
597,4	0,047
597,9	0,047
598,3	0,047
598,8	0,047
599,2	0,047
599,7	0,047
600,1	0,047
600,6	0,047
601	0,047
601,4	0,047
601,9	0,047
602,3	0,047
602,8	0,047
603,2	0,047
603,7	0,047
604,1	0,047
604,6	0,047
605	0,047
605,4	0,047
605,9	0,047
606,3	0,048
606,8	0,047
607,2	0,047
607,7	0,047
608,1	0,047
608,6	0,048
609	0,048
609,4	0,048
609,9	0,048
610,3	0,048
610,8	0,048
611,2	0,048
611,7	0,048
612,1	0,048
612,6	0,048
613	0,048
613,4	0,048
613,9	0,048
614,3	0,048
614,8	0,048
615,2	0,048
615,7	0,048
616,1	0,048
616,6	0,048
617	0,047
617,4	0,047
617,9	0,047
618,3	0,047
618,8	0,047
619,2	0,047
619,7	0,046
620,1	0,046
620,5	0,046
621	0,046
621,4	0,046
621,9	0,047
622,3	0,046
622,8	0,046
623,2	0,046
623,6	0,046
624,1	0,046
624,5	0,047
625	0,047
625,4	0,047
625,9	0,047
626,3	0,047
626,8	0,047
627,2	0,047
627,6	0,047
628,1	0,046
628,5	0,046
629	0,047
629,4	0,046
629,9	0,047
630,3	0,046
630,7	0,046
631,2	0,046
631,6	0,046
632,1	0,046
632,5	0,046
633	0,046
633,4	0,046
633,8	0,046
634,3	0,046
634,7	0,046
635,2	0,046
635,6	0,046
636,1	0,046
636,5	0,045
636,9	0,046
637,4	0,045
637,8	0,045
638,3	0,045
638,7	0,045
639,2	0,045
639,6	0,045
640	0,045
640,5	0,045
640,9	0,045
641,4	0,046
641,8	0,046
642,2	0,046
642,7	0,046
643,1	0,046
643,6	0,047
644	0,046
644,5	0,046
644,9	0,046
645,3	0,045
645,8	0,045
646,2	0,045
646,7	0,045
647,1	0,045
647,6	0,045
648	0,045
648,4	0,046
648,9	0,047
649,3	0,047
649,8	0,047
650,2	0,047
650,6	0,047
651,1	0,047
651,5	0,047
652	0,047
652,4	0,047
652,9	0,047
653,3	0,048
653,7	0,049
654,2	0,031
654,6	0,021
655,1	0,015
655,5	0,019
655,9	0,019
656,4	0,019
656,8	0,016
657,3	0,022
657,7	0,031
658,2	0,048
658,6	0,048
659	0,047
659,5	0,047
659,9	0,047
660,4	0,047
660,8	0,047
661,2	0,047
661,7	0,047
662,1	0,047
662,6	0,046
663	0,046
663,4	0,046
663,9	0,045
664,3	0,045
664,8	0,045
665,2	0,045
665,6	0,045
666,1	0,046
666,5	0,046
667	0,046
667,4	0,047
667,9	0,047
668,3	0,047
668,7	0,048
669,2	0,048
669,6	0,048
670,1	0,047
670,5	0,047
670,9	0,047
671,4	0,047
671,8	0,047
672,3	0,047
672,7	0,047
673,1	0,047
673,6	0,047
674	0,047
674,5	0,047
674,9	0,047
675,3	0,047
675,8	0,048
676,2	0,048
676,7	0,048
677,1	0,048
677,5	0,048
678	0,048
678,4	0,049
678,9	0,049
679,3	0,048
679,7	0,048
680,2	0,048
680,6	0,048
681,1	0,048
681,5	0,048
681,9	0,048
682,4	0,047
682,8	0,047
683,3	0,048
683,7	0,048
684,1	0,048
684,6	0,048
685	0,048
685,5	0,048
685,9	0,048
686,3	0,048
686,8	0,048
687,2	0,048
687,7	0,048
688,1	0,048
688,5	0,048
689	0,048
689,4	0,048
689,9	0,048
690,3	0,048
690,7	0,048
691,2	0,048
691,6	0,048
692	0,048
692,5	0,048
692,9	0,048
693,4	0,048
693,8	0,048
694,2	0,048
694,7	0,048
695,1	0,048
695,6	0,048
696	0,048
696,4	0,048
696,9	0,048
697,3	0,047
697,8	0,047
698,2	0,047
698,6	0,047
699,1	0,047
699,5	0,047
699,9	0,046
700,4	0,047
700,8	0,047
701,3	0,047
701,7	0,047
702,1	0,047
702,6	0,048
703	0,048
703,5	0,048
703,9	0,048
704,3	0,048
704,8	0,048
705,2	0,048
705,6	0,048
706,1	0,048
706,5	0,048
707	0,048
707,4	0,049
707,8	0,048
708,3	0,048
708,7	0,048
709,2	0,048
709,6	0,048
710	0,048
710,5	0,048
710,9	0,048
711,3	0,049
711,8	0,049
712,2	0,049
712,7	0,049
713,1	0,049
713,5	0,049
714	0,049
714,4	0,049
714,8	0,049
715,3	0,049
715,7	0,049
716,2	0,048
716,6	0,048
717	0,048
717,5	0,048
717,9	0,048
718,3	0,048
718,8	0,048
719,2	0,048
719,7	0,048
720,1	0,048
720,5	0,049
721	0,049
721,4	0,049
721,8	0,049
722,3	0,049
722,7	0,049
723,2	0,049
723,6	0,049
724	0,049
724,5	0,05
724,9	0,05
725,3	0,051
725,8	0,05
726,2	0,05
726,7	0,05
727,1	0,05
727,5	0,049
728	0,049
728,4	0,049
728,8	0,049
729,3	0,049
729,7	0,049
730,1	0,049
730,6	0,049
731	0,049
731,5	0,049
731,9	0,05
732,3	0,05
732,8	0,05
733,2	0,05
733,6	0,05
734,1	0,05
734,5	0,05
734,9	0,05
735,4	0,05
735,8	0,05
736,3	0,05
736,7	0,049
737,1	0,049
737,6	0,049
738	0,049
738,4	0,049
738,9	0,049
739,3	0,049
739,7	0,049
740,2	0,049
740,6	0,049
741,1	0,049
741,5	0,049
741,9	0,049
742,4	0,049
742,8	0,049
743,2	0,049
743,7	0,049
744,1	0,049
744,5	0,049
745	0,049
745,4	0,049
745,8	0,049
746,3	0,049
746,7	0,049
747,2	0,049
747,6	0,049
748	0,05
748,5	0,049
748,9	0,049
749,3	0,05
749,8	0,05
750,2	0,05
750,6	0,049
751,1	0,049
751,5	0,05
751,9	0,05
752,4	0,05
752,8	0,05
753,3	0,05
753,7	0,05
754,1	0,05
754,6	0,05
755	0,05
755,4	0,05
755,9	0,05
756,3	0,05
756,7	0,051
757,2	0,051
757,6	0,051
758	0,051
758,5	0,051
758,9	0,051
759,3	0,051
759,8	0,051
760,2	0,052
760,6	0,052
761,1	0,052
761,5	0,052
761,9	0,052
762,4	0,052
762,8	0,052
763,3	0,052
763,7	0,052
764,1	0,052
764,6	0,051
765	0,051
765,4	0,05
765,9	0,049
766,3	0,049
766,7	0,049
767,2	0,049
767,6	0,049
768	0,049
768,5	0,049
768,9	0,05
769,3	0,05
769,8	0,051
770,2	0,051
770,6	0,051
771,1	0,052
771,5	0,052
771,9	0,052
772,4	0,052
772,8	0,052
773,2	0,052
773,7	0,052
774,1	0,052
774,5	0,053
775	0,053
775,4	0,052
775,8	0,052
776,3	0,052
776,7	0,052
777,1	0,052
777,6	0,051
778	0,051
778,4	0,052
778,9	0,052
779,3	0,052
779,7	0,052
780,2	0,052
780,6	0,052
781	0,053
781,5	0,052
781,9	0,053
782,3	0,053
782,8	0,053
783,2	0,053
783,6	0,052
784,1	0,052
784,5	0,052
784,9	0,052
785,4	0,052
785,8	0,052
786,2	0,052
786,7	0,052
787,1	0,051
787,5	0,051
788	0,051
788,4	0,051
788,8	0,051
789,3	0,051
789,7	0,051
790,1	0,051
790,6	0,051
791	0,05
791,4	0,051
791,9	0,051
792,3	0,051
792,7	0,051
793,2	0,051
793,6	0,052
794	0,052
794,5	0,052
794,9	0,052
795,3	0,052
795,8	0,052
796,2	0,052
796,6	0,052
797,1	0,052
797,5	0,052
797,9	0,052
798,4	0,053
798,8	0,053
799,2	0,053
799,7	0,053
800,1	0,052
800,5	0,052
801	0,052
801,4	0,052
801,8	0,052
802,2	0,052
802,7	0,052
803,1	0,052
803,5	0,052
804	0,052
804,4	0,051
804,8	0,051
805,3	0,051
805,7	0,051
806,1	0,051
806,6	0,051
807	0,051
807,4	0,051
807,9	0,051
808,3	0,051
808,7	0,052
809,2	0,052
809,6	0,052
810	0,052
810,4	0,052
810,9	0,052
811,3	0,052
811,7	0,052
812,2	0,051
812,6	0,051
813	0,051
813,5	0,051
813,9	0,051
814,3	0,051
814,8	0,051
815,2	0,05
815,6	0,05
816,1	0,05
816,5	0,051
816,9	0,051
817,3	0,051
817,8	0,051
818,2	0,051
818,6	0,051
819,1	0,051
819,5	0,051
819,9	0,051
820,4	0,052
820,8	0,052
821,2	0,052
821,7	0,053
822,1	0,053
822,5	0,053
822,9	0,053
823,4	0,053
823,8	0,053
824,2	0,053
824,7	0,053
825,1	0,052
825,5	0,052
826	0,052
826,4	0,052
826,8	0,052
827,3	0,052
827,7	0,052
828,1	0,052
828,5	0,053
829	0,052
829,4	0,052
829,8	0,053
830,3	0,053
830,7	0,053
831,1	0,053
831,6	0,052
832	0,052
832,4	0,052
832,8	0,052
833,3	0,052
833,7	0,052
834,1	0,052
834,6	0,052
835	0,052
835,4	0,052
835,8	0,052
836,3	0,052
836,7	0,052
837,1	0,052
837,6	0,052
838	0,053
838,4	0,053
838,9	0,053
839,3	0,053
839,7	0,053
840,1	0,052
840,6	0,052
841	0,052
841,4	0,052
841,9	0,051
842,3	0,051
842,7	0,051
843,1	0,051
843,6	0,051
844	0,051
844,4	0,051
844,9	0,051
845,3	0,051
845,7	0,051
846,2	0,052
846,6	0,052
847	0,052
847,4	0,053
847,9	0,053
848,3	0,053
848,7	0,053
849,2	0,054
849,6	0,054
850	0,054
850,4	0,053
850,9	0,054
851,3	0,054
851,7	0,054
852,2	0,054
852,6	0,054
853	0,054
853,4	0,054
853,9	0,054
854,3	0,054
854,7	0,054
855,2	0,054
855,6	0,054
856	0,054
856,4	0,053
856,9	0,053
857,3	0,053
857,7	0,053
858,2	0,053
858,6	0,053
859	0,053
859,4	0,053
859,9	0,053
860,3	0,053
860,7	0,053
861,1	0,053
861,6	0,053
862	0,054
862,4	0,054
862,9	0,054
863,3	0,055
863,7	0,054
864,1	0,054
864,6	0,054
865	0,054
865,4	0,054
865,9	0,053
866,3	0,053
866,7	0,053
867,1	0,052
867,6	0,052
868	0,052
868,4	0,052
868,8	0,052
869,3	0,052
869,7	0,053
870,1	0,053
870,6	0,054
871	0,053
871,4	0,054
871,8	0,053
872,3	0,053
872,7	0,053
873,1	0,053
873,5	0,053
874	0,053
874,4	0,053
874,8	0,053
875,3	0,053
875,7	0,053
876,1	0,053
876,5	0,054
877	0,054
877,4	0,054
877,8	0,054
878,2	0,055
878,7	0,055
879,1	0,055
879,5	0,054
879,9	0,054
880,4	0,054
880,8	0,054
881,2	0,054
881,7	0,054
882,1	0,054
882,5	0,054
882,9	0,054
883,4	0,054
883,8	0,054
884,2	0,053
884,6	0,054
885,1	0,054
885,5	0,054
885,9	0,053
886,3	0,053
886,8	0,053
887,2	0,053
887,6	0,052
888	0,052
888,5	0,053
888,9	0,053
889,3	0,053
889,8	0,053
890,2	0,052
890,6	0,053
891	0,052
891,5	0,052
891,9	0,052
892,3	0,053
892,7	0,053
893,2	0,053
893,6	0,053
894	0,054
894,4	0,053
894,9	0,053
895,3	0,053
895,7	0,053
896,1	0,053
896,6	0,053
897	0,053
897,4	0,053
897,8	0,053
898,3	0,054
898,7	0,053
899,1	0,053
899,5	0,054
900	0,054
900,4	0,054
900,8	0,054
901,2	0,053
901,7	0,053
902,1	0,053
902,5	0,053
902,9	0,053
903,4	0,052
903,8	0,052
904,2	0,052
904,6	0,052
905,1	0,052
905,5	0,052
905,9	0,053
906,3	0,053
906,8	0,053
907,2	0,053
907,6	0,053
908	0,054
908,5	0,054
908,9	0,054
909,3	0,055
909,7	0,055
910,2	0,055
910,6	0,055
911	0,055
911,4	0,055
911,9	0,055
912,3	0,055
912,7	0,055
913,1	0,055
913,6	0,055
914	0,055
914,4	0,055
914,8	0,055
915,3	0,055
915,7	0,055
916,1	0,055
916,5	0,055
916,9	0,055
917,4	0,055
917,8	0,055
918,2	0,055
918,6	0,056
919,1	0,055
919,5	0,055
919,9	0,055
920,3	0,055
920,8	0,055
921,2	0,054
921,6	0,054
922	0,054
922,5	0,054
922,9	0,054
923,3	0,054
923,7	0,055
924,2	0,055
924,6	0,055
925	0,056
925,4	0,056
925,8	0,056
926,3	0,056
926,7	0,056
927,1	0,056
927,5	0,056
928	0,056
928,4	0,056
928,8	0,056
929,2	0,056
929,7	0,055
930,1	0,055
930,5	0,055
930,9	0,055
931,3	0,055
931,8	0,055
932,2	0,055
932,6	0,055
933	0,055
933,5	0,055
933,9	0,054
934,3	0,055
934,7	0,054
935,2	0,054
935,6	0,054
936	0,054
936,4	0,054
936,8	0,054
937,3	0,054
937,7	0,054
938,1	0,054
938,5	0,054
939	0,053
939,4	0,054
939,8	0,054
940,2	0,054
940,6	0,055
941,1	0,055
941,5	0,056
941,9	0,056
942,3	0,057
942,8	0,057
943,2	0,057
943,6	0,057
944	0,057
944,4	0,057
944,9	0,056
945,3	0,056
945,7	0,056
946,1	0,056
946,6	0,056
947	0,057
947,4	0,057
947,8	0,057
948,2	0,058
948,7	0,057
949,1	0,057
949,5	0,057
949,9	0,057
950,3	0,057
950,8	0,057
951,2	0,056
951,6	0,056
952	0,057
952,5	0,057
952,9	0,057
953,3	0,058
953,7	0,058
954,1	0,058
954,6	0,058
955	0,058
955,4	0,058
955,8	0,058
956,2	0,057
956,7	0,057
957,1	0,057
957,5	0,057
957,9	0,057
958,3	0,057
958,8	0,057
959,2	0,056
959,6	0,056
960	0,056
960,5	0,056
960,9	0,057
961,3	0,056
961,7	0,057
962,1	0,057
962,6	0,058
963	0,057
963,4	0,057
963,8	0,056
964,2	0,056
964,7	0,056
965,1	0,056
965,5	0,056
965,9	0,056
966,3	0,057
966,8	0,057
967,2	0,058
967,6	0,058
968	0,059
968,4	0,059
968,9	0,059
969,3	0,059
969,7	0,058
970,1	0,058
970,5	0,058
971	0,058
971,4	0,058
971,8	0,058
972,2	0,058
972,6	0,058
973,1	0,058
973,5	0,058
973,9	0,057
974,3	0,057
974,7	0,057
975,2	0,057
975,6	0,057
976	0,057
976,4	0,058
976,8	0,057
977,3	0,058
977,7	0,058
978,1	0,058
978,5	0,058
978,9	0,058
979,4	0,057
979,8	0,058
980,2	0,058
980,6	0,057
981	0,058
981,5	0,057
981,9	0,058
982,3	0,058
982,7	0,058
983,1	0,058
983,6	0,058
984	0,058
984,4	0,059
984,8	0,058
985,2	0,058
985,6	0,058
986,1	0,058
986,5	0,058
986,9	0,059
987,3	0,059
987,7	0,059
988,2	0,059
988,6	0,059
989	0,059
989,4	0,058
989,8	0,057
990,3	0,058
990,7	0,058
991,1	0,058
991,5	0,058
991,9	0,058
992,3	0,058
992,8	0,058
993,2	0,058
993,6	0,058
994	0,057
994,4	0,057
994,9	0,056
995,3	0,056
995,7	0,056
996,1	0,056
996,5	0,056
996,9	0,057
997,4	0,056
997,8	0,057
998,2	0,057
998,6	0,057
999	0,056
999,5	0,055
999,9	0,055
1000,3	0,054
1000,7	0,054
1001,1	0,054
1001,5	0,054
1002	0,055
1002,4	0,056
1002,8	0,056
1003,2	0,056
1003,6	0,056
1004	0,056
1004,5	0,056
1004,9	0,056
1005,3	0,056
1005,7	0,057
1006,1	0,056
1006,6	0,056
1007	0,057
1007,4	0,057
1007,8	0,057
1008,2	0,056
1008,6	0,056
1009,1	0,056
1009,5	0,056
1009,9	0,056
1010,3	0,056
1010,7	0,056
1011,1	0,057
1011,6	0,057
1012	0,057
1012,4	0,057
1012,8	0,057
1013,2	0,057
1013,6	0,057
1014,1	0,056
1014,5	0,056
1014,9	0,056
1015,3	0,056
1015,7	0,055
1016,1	0,055
1016,6	0,055
1017	0,055
1017,4	0,055
1017,8	0,055
1018,2	0,055
1018,6	0,055
1019,1	0,055
1019,5	0,055
1019,9	0,056
1020,3	0,056
1020,7	0,056
1021,1	0,056
1021,6	0,056
1022	0,055
1022,4	0,055
1022,8	0,055
1023,2	0,054
1023,6	0,054
1024,1	0,055
1024,5	0,056
1024,9	0,056
1025,3	0,056
1025,7	0,056
1026,1	0,057
1026,6	0,057
1027	0,056
1027,4	0,056
1027,8	0,056
1028,2	0,056
1028,6	0,056
1029	0,056
1029,5	0,057
1029,9	0,057
1030,3	0,057
1030,7	0,056
1031,1	0,056
1031,5	0,056
1032	0,056
1032,4	0,056
1032,8	0,056
1033,2	0,055
1033,6	0,056
1034	0,056
1034,4	0,056
1034,9	0,057
1035,3	0,056
1035,7	0,057
1036,1	0,057
1036,5	0,058
1036,9	0,058
1037,4	0,058
1037,8	0,059
1038,2	0,059
1038,6	0,059
1039	0,059
1039,4	0,059
1039,8	0,059
1040,3	0,059
1040,7	0,059
1041,1	0,059
1041,5	0,059
1041,9	0,059
1042,3	0,058
1042,7	0,058
1043,2	0,057
1043,6	0,058
1044	0,058
1044,4	0,058
1044,8	0,058
1045,2	0,059
1045,6	0,06
1046,1	0,059
1046,5	0,059
1046,9	0,059
1047,3	0,058
1047,7	0,058
1048,1	0,059
1048,5	0,059
1049	0,06
1049,4	0,06
1049,8	0,061
1050,2	0,061
1050,6	0,061
1051	0,061
1051,4	0,06
1051,9	0,06
1052,3	0,06
1052,7	0,06
1053,1	0,061
1053,5	0,061
1053,9	0,061
1054,3	0,062
1054,8	0,06
1055,2	0,06
1055,6	0,06
1056	0,059
1056,4	0,058
1056,8	0,059
1057,2	0,059
1057,6	0,06
1058,1	0,06
1058,5	0,06
1058,9	0,06
1059,3	0,062
1059,7	0,062
1060,1	0,062
1060,5	0,061
1061	0,061
1061,4	0,061
1061,8	0,061
1062,2	0,06
1062,6	0,06
1063	0,06
1063,4	0,06
1063,8	0,06
1064,3	0,06
1064,7	0,06
1065,1	0,06
1065,5	0,06
1065,9	0,061
1066,3	0,061
1066,7	0,061
1067,1	0,06
1067,6	0,06
1068	0,061
1068,4	0,062
1068,8	0,06
1069,2	0,06
1069,6	0,059
1070	0,06
1070,4	0,06
1070,9	0,06
1071,3	0,06
1071,7	0,06
1072,1	0,061
1072,5	0,061
1072,9	0,061
1073,3	0,061
1073,7	0,061
1074,2	0,062
1074,6	0,063
1075	0,062
1075,4	0,062
1075,8	0,063
1076,2	0,063
1076,6	0,062
1077	0,062
1077,5	0,062
1077,9	0,06
1078,3	0,06
1078,7	0,059
1079,1	0,06
1079,5	0,06
1079,9	0,059
1080,3	0,059
1080,7	0,061
1081,2	0,06
1081,6	0,061
1082	0,06
1082,4	0,06
1082,8	0,06
1083,2	0,063
1083,6	0,06
1084	0,061
1084,5	0,062
1084,9	0,061
1085,3	0,062
1085,7	0,063
1086,1	0,061
1086,5	0,062
1086,9	0,062
1087,3	0,062
1087,7	0,062
1088,2	0,062
1088,6	0,061
1089	0,062
1089,4	0,065
1089,8	0,064
1090,2	0,061
1090,6	0,063
1091	0,064
1091,4	0,065
1091,9	0,064
1092,3	0,063
1092,7	0,062
1093,1	0,064
1093,5	0,065
1093,9	0,064
1094,3	0,061
1094,7	0,062
1095,1	0,068
1095,5	0,071
1096	0,07
1096,4	0,078
1096,8	0,081
1097,2	0,08
1097,6	0,075
1098	0,07
1098,4	0,075
1098,8	0,079
1099,2	0,071
1099,6	0,07
1100,1	0,076
1100,5	0,088
1100,9	0,08
1101,3	0,081
1101,7	0,084
1102,1	0,08
1102,5	0,08
1102,9	0,079
1103,3	0,075
1103,7	0,09
1104,2	0,081
1104,6	0,067
1105	0,082
1105,4	0,079
1105,8	0,085
1106,2	0,088
1106,6	0,086
1107	0,088
1107,4	0,13
1107,8	0,09
1108,3	-0,818
